Device: USB-2408-2AO
Serial Number: 1C3CD21
Channel Count: 1
Sample Count: 508
Start Time: 1/18/2023 3:30:54.3 PM
Scan Rate: 10
Sample,Time (s),CH2 (µV)
0,0.0,-1011.454
1,0.1,-1011.752
2,0.2,-1012.376
3,0.3,-1012.599
4,0.4,-1012.227
5,0.5,-1012.944
6,0.6,-1012.953
7,0.7,-1013.549
8,0.8,-1013.931
9,0.9,-1013.763
10,1.0,-1014.210
11,1.1,-1014.164
12,1.2,-1014.443
13,1.3,-1014.676
14,1.4,-1014.713
15,1.5,-1015.197
16,1.6,-1014.611
17,1.7,-1015.170
18,1.8,-1015.151
19,1.9,-1014.918
20,2.0,-1015.291
21,2.1,-1015.039
22,2.2,-1015.458
23,2.3,-1015.300
24,2.4,-1015.235
25,2.5,-1015.663
26,2.6,-1015.589
27,2.7,-1015.766
28,2.8,-1015.663
29,2.9,-1015.831
30,3.0,-1016.138
31,3.1,-1015.496
32,3.2,-1016.362
33,3.3,-1015.645
34,3.4,-1015.877
35,3.5,-1015.915
36,3.6,-1015.887
37,3.7,-1016.157
38,3.8,-1015.877
39,3.9,-1016.436
40,4.0,-1015.859
41,4.1,-1015.961
42,4.2,-1016.194
43,4.3,-1015.933
44,4.4,-1016.073
45,4.5,-1015.943
46,4.6,-1016.008
47,4.7,-1016.119
48,4.8,-1015.887
49,4.9,-1016.036
50,5.0,-1015.803
51,5.1,-1015.691
52,5.2,-1015.887
53,5.3,-1015.645
54,5.4,-1015.859
55,5.5,-1015.468
56,5.6,-1015.710
57,5.7,-1015.728
58,5.8,-1015.458
59,5.9,-1015.505
60,6.0,-1015.440
61,6.1,-1015.393
62,6.2,-1015.142
63,6.3,-1014.872
64,6.4,-1015.197
65,6.5,-1014.667
66,6.6,-1015.263
67,6.7,-1014.750
68,6.8,-1015.011
69,6.9,-1014.993
70,7.0,-1014.788
71,7.1,-1015.011
72,7.2,-1014.955
73,7.3,-1015.188
74,7.4,-1014.881
75,7.5,-1014.322
76,7.6,-1015.076
77,7.7,-1014.639
78,7.8,-1014.993
79,7.9,-1015.123
80,8.0,-1014.927
81,8.1,-1014.983
82,8.2,-1015.030
83,8.3,-1015.151
84,8.4,-1015.114
85,8.5,-1015.011
86,8.6,-1015.756
87,8.7,-1015.151
88,8.8,-1015.328
89,8.9,-1014.918
90,9.0,-1015.160
91,9.1,-1015.570
92,9.2,-1014.909
93,9.3,-1015.682
94,9.4,-1014.946
95,9.5,-1015.542
96,9.6,-1015.244
97,9.7,-1015.365
98,9.8,-1015.458
99,9.9,-1015.328
100,10.0,-1015.142
101,10.1,-1015.523
102,10.2,-1015.244
103,10.3,-1015.766
104,10.4,-1015.319
105,10.5,-1015.440
106,10.6,-1015.356
107,10.7,-1015.374
108,10.8,-1015.794
109,10.9,-1015.440
110,11.0,-1015.849
111,11.1,-1015.235
112,11.2,-1015.458
113,11.3,-1015.617
114,11.4,-1015.309
115,11.5,-1015.747
116,11.6,-1015.440
117,11.7,-1015.458
118,11.8,-1015.570
119,11.9,-1015.458
120,12.0,-1015.989
121,12.1,-1014.965
122,12.2,-1015.626
123,12.3,-1015.924
124,12.4,-1015.496
125,12.5,-1015.970
126,12.6,-1015.533
127,12.7,-1015.663
128,12.8,-1015.579
129,12.9,-1015.719
130,13.0,-1016.138
131,13.1,-1015.542
132,13.2,-1015.663
133,13.3,-1015.728
134,13.4,-1015.374
135,13.5,-1015.859
136,13.6,-1015.961
137,13.7,-1015.496
138,13.8,-1015.719
139,13.9,-1015.924
140,14.0,-1015.523
141,14.1,-1015.402
142,14.2,-1015.449
143,14.3,-1015.374
144,14.4,-1015.635
145,14.5,-1015.654
146,14.6,-1015.700
147,14.7,-1015.645
148,14.8,-1015.589
149,14.9,-1015.421
150,15.0,-1015.831
151,15.1,-1015.831
152,15.2,-1015.663
153,15.3,-1015.728
154,15.4,-1015.784
155,15.5,-1016.026
156,15.6,-1016.250
157,15.7,-1015.831
158,15.8,-1016.017
159,15.9,-1016.092
160,16.0,-1015.915
161,16.1,-1015.747
162,16.2,-1015.821
163,16.3,-1016.110
164,16.4,-1016.175
165,16.5,-1016.138
166,16.6,-1016.399
167,16.7,-1016.706
168,16.8,-1016.306
169,16.9,-1016.008
170,17.0,-1016.445
171,17.1,-1016.362
172,17.2,-1016.613
173,17.3,-1016.390
174,17.4,-1016.837
175,17.5,-1016.473
176,17.6,-1016.790
177,17.7,-1016.613
178,17.8,-1016.697
179,17.9,-1017.032
180,18.0,-1016.920
181,18.1,-1016.920
182,18.2,-1017.489
183,18.3,-1017.125
184,18.4,-1016.911
185,18.5,-1016.892
186,18.6,-1017.181
187,18.7,-1017.395
188,18.8,-1016.986
189,18.9,-1017.340
190,19.0,-1017.433
191,19.1,-1017.312
192,19.2,-1016.986
193,19.3,-1017.489
194,19.4,-1017.405
195,19.5,-1017.516
196,19.6,-1017.088
197,19.7,-1017.479
198,19.8,-1017.284
199,19.9,-1017.610
200,20.0,-1017.526
201,20.1,-1017.749
202,20.2,-1017.833
203,20.3,-1017.908
204,20.4,-1017.749
205,20.5,-1017.991
206,20.6,-1018.103
207,20.7,-1018.057
208,20.8,-1017.880
209,20.9,-1017.787
210,21.0,-1018.345
211,21.1,-1018.057
212,21.2,-1017.759
213,21.3,-1017.880
214,21.4,-1017.880
215,21.5,-1017.610
216,21.6,-1017.721
217,21.7,-1018.029
218,21.8,-1018.215
219,21.9,-1018.206
220,22.0,-1018.178
221,22.1,-1018.094
222,22.2,-1018.411
223,22.3,-1018.317
224,22.4,-1018.513
225,22.5,-1018.494
226,22.6,-1018.811
227,22.7,-1018.653
228,22.8,-1018.709
229,22.9,-1018.653
230,23.0,-1018.746
231,23.1,-1018.532
232,23.2,-1018.066
233,23.3,-1018.392
234,23.4,-1018.941
235,23.5,-1018.690
236,23.6,-1018.317
237,23.7,-1018.327
238,23.8,-1018.979
239,23.9,-1019.007
240,24.0,-1018.643
241,24.1,-1019.156
242,24.2,-1018.904
243,24.3,-1018.951
244,24.4,-1018.895
245,24.5,-1018.960
246,24.6,-1019.249
247,24.7,-1018.997
248,24.8,-1018.643
249,24.9,-1018.774
250,25.0,-1019.053
251,25.1,-1018.438
252,25.2,-1018.988
253,25.3,-1018.932
254,25.4,-1019.146
255,25.5,-1019.239
256,25.6,-1018.681
257,25.7,-1019.035
258,25.8,-1019.053
259,25.9,-1018.858
260,26.0,-1018.997
261,26.1,-1019.165
262,26.2,-1019.081
263,26.3,-1018.988
264,26.4,-1018.997
265,26.5,-1018.932
266,26.6,-1018.969
267,26.7,-1018.820
268,26.8,-1018.671
269,26.9,-1018.653
270,27.0,-1018.923
271,27.1,-1018.886
272,27.2,-1018.494
273,27.3,-1019.044
274,27.4,-1019.062
275,27.5,-1018.895
276,27.6,-1018.848
277,27.7,-1019.044
278,27.8,-1018.988
279,27.9,-1018.979
280,28.0,-1018.317
281,28.1,-1019.118
282,28.2,-1019.202
283,28.3,-1018.979
284,28.4,-1019.202
285,28.5,-1019.668
286,28.6,-1019.603
287,28.7,-1018.904
288,28.8,-1019.370
289,28.9,-1019.286
290,29.0,-1019.109
291,29.1,-1019.370
292,29.2,-1019.146
293,29.3,-1019.426
294,29.4,-1019.575
295,29.5,-1019.491
296,29.6,-1019.211
297,29.7,-1019.444
298,29.8,-1019.705
299,29.9,-1019.659
300,30.0,-1019.761
301,30.1,-1019.826
302,30.2,-1019.305
303,30.3,-1019.919
304,30.4,-1019.631
305,30.5,-1019.882
306,30.6,-1019.826
307,30.7,-1019.519
308,30.8,-1019.938
309,30.9,-1019.482
310,31.0,-1019.724
311,31.1,-1019.733
312,31.2,-1019.845
313,31.3,-1019.863
314,31.4,-1020.133
315,31.5,-1019.547
316,31.6,-1019.649
317,31.7,-1019.901
318,31.8,-1019.854
319,31.9,-1019.724
320,32.0,-1020.068
321,32.1,-1019.854
322,32.2,-1019.966
323,32.3,-1019.984
324,32.4,-1020.152
325,32.5,-1020.413
326,32.6,-1020.087
327,32.7,-1019.910
328,32.8,-1019.938
329,32.9,-1020.115
330,33.0,-1020.459
331,33.1,-1019.975
332,33.2,-1020.012
333,33.3,-1020.310
334,33.4,-1020.087
335,33.5,-1020.189
336,33.6,-1019.938
337,33.7,-1020.366
338,33.8,-1020.022
339,33.9,-1020.264
340,34.0,-1020.022
341,34.1,-1020.394
342,34.2,-1020.581
343,34.3,-1020.506
344,34.4,-1020.227
345,34.5,-1020.664
346,34.6,-1020.329
347,34.7,-1019.910
348,34.8,-1020.068
349,34.9,-1020.189
350,35.0,-1020.227
351,35.1,-1020.106
352,35.2,-1020.022
353,35.3,-1020.469
354,35.4,-1020.189
355,35.5,-1019.966
356,35.6,-1020.199
357,35.7,-1020.888
358,35.8,-1020.413
359,35.9,-1020.422
360,36.0,-1020.124
361,36.1,-1020.590
362,36.2,-1020.525
363,36.3,-1020.124
364,36.4,-1020.180
365,36.5,-1020.515
366,36.6,-1020.432
367,36.7,-1020.068
368,36.8,-1020.525
369,36.9,-1020.590
370,37.0,-1020.590
371,37.1,-1020.133
372,37.2,-1020.627
373,37.3,-1020.692
374,37.4,-1020.441
375,37.5,-1020.702
376,37.6,-1020.571
377,37.7,-1020.655
378,37.8,-1020.711
379,37.9,-1020.515
380,38.0,-1020.813
381,38.1,-1020.972
382,38.2,-1020.841
383,38.3,-1020.581
384,38.4,-1020.711
385,38.5,-1020.916
386,38.6,-1020.692
387,38.7,-1020.497
388,38.8,-1020.888
389,38.9,-1020.897
390,39.0,-1020.776
391,39.1,-1020.767
392,39.2,-1020.757
393,39.3,-1021.111
394,39.4,-1021.028
395,39.5,-1021.251
396,39.6,-1020.851
397,39.7,-1021.056
398,39.8,-1020.785
399,39.9,-1020.487
400,40.0,-1020.860
401,40.1,-1021.037
402,40.2,-1020.832
403,40.3,-1020.860
404,40.4,-1020.972
405,40.5,-1021.018
406,40.6,-1021.093
407,40.7,-1021.149
408,40.8,-1021.139
409,40.9,-1020.739
410,41.0,-1020.553
411,41.1,-1020.692
412,41.2,-1020.916
413,41.3,-1020.823
414,41.4,-1020.683
415,41.5,-1020.953
416,41.6,-1020.487
417,41.7,-1021.037
418,41.8,-1021.046
419,41.9,-1020.888
420,42.0,-1020.608
421,42.1,-1020.953
422,42.2,-1021.000
423,42.3,-1020.711
424,42.4,-1020.972
425,42.5,-1021.214
426,42.6,-1020.925
427,42.7,-1020.776
428,42.8,-1021.307
429,42.9,-1021.037
430,43.0,-1020.515
431,43.1,-1020.692
432,43.2,-1021.083
433,43.3,-1020.925
434,43.4,-1020.832
435,43.5,-1021.018
436,43.6,-1021.223
437,43.7,-1021.344
438,43.8,-1020.934
439,43.9,-1021.232
440,44.0,-1021.493
441,44.1,-1021.270
442,44.2,-1021.270
443,44.3,-1021.288
444,44.4,-1021.149
445,44.5,-1021.354
446,44.6,-1021.354
447,44.7,-1021.037
448,44.8,-1021.605
449,44.9,-1021.083
450,45.0,-1021.279
451,45.1,-1021.428
452,45.2,-1021.298
453,45.3,-1021.354
454,45.4,-1021.409
455,45.5,-1021.177
456,45.6,-1021.288
457,45.7,-1021.307
458,45.8,-1021.056
459,45.9,-1021.493
460,46.0,-1021.251
461,46.1,-1021.661
462,46.2,-1021.205
463,46.3,-1021.437
464,46.4,-1021.754
465,46.5,-1021.391
466,46.6,-1021.307
467,46.7,-1021.400
468,46.8,-1021.652
469,46.9,-1021.596
470,47.0,-1021.493
471,47.1,-1021.745
472,47.2,-1021.568
473,47.3,-1021.456
474,47.4,-1021.456
475,47.5,-1021.475
476,47.6,-1021.773
477,47.7,-1021.735
478,47.8,-1021.177
479,47.9,-1021.009
480,48.0,-1021.912
481,48.1,-1021.437
482,48.2,-1021.121
483,48.3,-1021.400
484,48.4,-1021.726
485,48.5,-1021.745
486,48.6,-1021.558
487,48.7,-1021.847
488,48.8,-1021.950
489,48.9,-1021.679
490,49.0,-1021.149
491,49.1,-1021.447
492,49.2,-1021.633
493,49.3,-1021.931
494,49.4,-1021.540
495,49.5,-1021.512
496,49.6,-1021.829
497,49.7,-1021.428
498,49.8,-1021.288
499,49.9,-1021.819
500,50.0,-1021.484
501,50.1,-1021.214
502,50.2,-1021.130
503,50.3,-1021.465
504,50.4,-1022.015
505,50.5,-1021.354
506,50.6,-1021.419
507,50.7,-1021.475
